File: Rigaku_Lab_XRD/SIO2_quartz_conv.xy
# scan speed: 2.0
# theta min: 5.0
# theta_max: 85.0
# spacing: 0.05
# two theta, intensity
5.0 38.6667
5.3 49.3333
5.6 55.3333
5.9 60.0
6.2 50.0
6.5 61.3333
6.8 52.6667
7.1 63.3333
7.4 67.3333
7.7 65.3333
8 58.0
8.3 74.0
8.6 62.0
8.9 71.3333
9.2 78.0
9.5 91.3333
9.8 88.6667
10.1 82.0
10.4 81.3333
10.7 82.0
11 98.0
11.3 80.0
11.6 108.667
11.9 88.6667
12.2 90.6667
12.5 98.6667
12.8 100.0
13.1 81.3333
13.4 90.0
13.7 74.6667
14 74.0
14.3 65.3333
14.6 75.3333
14.9 67.3333
15.2 56.0
15.5 76.6667
15.8 68.6667
16.1 67.3333
16.4 82.0
16.7 66.0
17 61.3333
17.3 67.3333
17.6 70.0
17.9 76.0
18.2 68.0
18.5 78.6667
18.8 72.6667
19.1 69.3333
19.4 75.3333
19.7 70.0
20 64.0
20.3 78.6667
20.6 207.333
20.9 120.0
21.2 88.6667
21.5 84.0
21.8 82.6667
22.1 95.3333
22.4 85.3333
22.7 81.3333
23 70.6667
23.3 93.3333
23.6 90.6667
23.9 78.0
24.2 62.0
24.5 86.0
24.8 92.6667
25.1 93.3333
25.4 89.3333
25.7 86.0
26 111.333
26.3 226.667
26.6 114.667
26.9 96.6667
27.2 85.3333
27.5 93.3333
27.8 120.667
28.1 99.3333
28.4 88.0
28.7 83.3333
29 96.6667
29.3 91.3333
29.6 109.333
29.9 97.3333
30.2 90.6667
30.5 81.3333
30.8 92.6667
31.1 92.6667
31.4 105.333
31.7 92.6667
32 96.6667
32.3 84.0
32.6 82.0
32.9 81.3333
33.2 95.3333
33.5 92.6667
33.8 90.6667
34.1 88.0
34.4 87.3333
34.7 83.3333
35 86.0
35.3 81.3333
35.6 84.0
35.9 82.0
36.2 81.3333
36.5 111.333
36.8 84.6667
37.1 86.6667
37.4 83.3333
37.7 77.3333
38 112.667
38.3 96.6667
38.6 72.0
38.9 106.667
39.2 394.0
39.5 509.333
39.8 96.6667
40.1 265.333
40.4 87.3333
40.7 79.3333
41 92.0
41.3 91.3333
41.6 95.3333
41.9 86.6667
42.2 1204.67
42.5 114.667
42.8 70.0
43.1 90.0
43.4 86.0
43.7 73.3333
44 67.3333
44.3 70.6667
44.6 72.6667
44.9 91.3333
45.2 72.6667
45.5 118.667
45.8 110.0
46.1 70.0
46.4 63.3333
46.7 82.0
47 82.6667
47.3 64.0
47.6 75.3333
47.9 69.3333
48.2 73.3333
48.5 74.6667
48.8 62.0
49.1 100.667
49.4 114.0
49.7 70.0
50 705.333
50.3 95.3333
50.6 87.3333
50.9 66.0
51.2 71.3333
51.5 61.3333
51.8 69.3333
52.1 60.0
52.4 78.6667
52.7 71.3333
53 64.0
53.3 79.3333
53.6 88.0
53.9 76.6667
54.2 70.0
54.5 112.0
54.8 711.333
55.1 296.0
55.4 90.0
55.7 81.3333
56 70.6667
56.3 73.3333
56.6 79.3333
56.9 80.0
57.2 68.6667
57.5 77.3333
57.8 78.0
58.1 92.0
58.4 86.0
58.7 80.0
59 86.6667
59.3 79.3333
59.6 190.667
59.9 638.667
60.2 96.6667
60.5 84.0
60.8 74.0
61.1 88.0
61.4 88.6667
61.7 80.0
62 76.0
62.3 86.0
62.6 70.6667
62.9 80.0
63.2 86.6667
63.5 91.3333
63.8 368.0
64.1 127.333
64.4 90.0
64.7 93.3333
65 98.6667
65.3 80.0
65.6 174.667
65.9 111.333
66.2 94.0
66.5 77.3333
66.8 98.0
67.1 111.333
67.4 264.667
67.7 730.0
68 1494.67
68.3 148.0
68.6 103.333
68.9 105.333
69.2 82.0
69.5 78.0
69.8 95.3333
70.1 86.6667
70.4 100.0
70.7 85.3333
71 88.0
71.3 89.3333
71.6 93.3333
71.9 91.3333
72.2 98.0
72.5 99.3333
72.8 83.3333
73.1 118.667
73.4 136.0
73.7 92.6667
74 108.667
74.3 94.6667
74.6 82.0
74.9 102.667
75.2 102.667
75.5 611.333
75.8 122.0
76.1 94.6667
76.4 87.3333
76.7 94.6667
77 85.3333
77.3 102.0
77.6 146.0
77.9 84.0
78.2 86.0
78.5 100.0
78.8 105.333
79.1 105.333
79.4 122.0
79.7 192.667
80 198.667
80.3 101.333
80.6 96.6667
80.9 729.333
81.2 433.333
81.5 146.0
81.8 107.333
82.1 89.3333
82.4 90.0
82.7 92.0
83 90.6667
83.3 102.0
83.6 97.3333
83.9 98.0
84.2 93.3333
84.5 78.6667
84.8 166.0