File: Rigaku_Lab_XRD/SIO2_100%_conv.xy
# scan speed: 1.0
# theta min: 5.0
# theta_max: 85.0
# spacing: 0.05
# two theta, intensity
5.0 76.0
5.3 70.0
5.6 77.6667
5.9 84.3333
6.2 94.0
6.5 111.333
6.8 105.333
7.1 107.667
7.4 112.333
7.7 114.0
8 135.667
8.3 127.0
8.6 142.667
8.9 151.0
9.2 144.667
9.5 150.333
9.8 152.667
10.1 161.333
10.4 159.333
10.7 164.333
11 163.333
11.3 174.667
11.6 158.0
11.9 158.333
12.2 162.0
12.5 159.333
12.8 152.667
13.1 154.667
13.4 158.667
13.7 157.667
14 161.667
14.3 164.333
14.6 157.667
14.9 157.667
15.2 160.333
15.5 170.0
15.8 177.667
16.1 162.333
16.4 181.0
16.7 190.667
17 180.667
17.3 190.0
17.6 191.333
17.9 203.667
18.2 212.0
18.5 229.667
18.8 249.667
19.1 231.667
19.4 263.333
19.7 267.333
20 277.0
20.3 306.667
20.6 293.667
20.9 330.0
21.2 321.667
21.5 332.0
21.8 314.667
22.1 333.333
22.4 331.667
22.7 309.333
23 301.333
23.3 302.0
23.6 294.333
23.9 281.667
24.2 283.667
24.5 259.333
24.8 274.667
25.1 251.0
25.4 257.0
25.7 249.667
26 245.667
26.3 238.0
26.6 224.0
26.9 228.333
27.2 215.667
27.5 222.0
27.8 205.0
28.1 212.667
28.4 203.667
28.7 181.0
29 194.0
29.3 201.667
29.6 195.667
29.9 202.0
30.2 201.667
30.5 187.667
30.8 199.333
31.1 180.0
31.4 183.0
31.7 188.333
32 176.667
32.3 184.667
32.6 170.667
32.9 167.667
33.2 182.0
33.5 187.0
33.8 156.333
34.1 169.667
34.4 169.667
34.7 173.667
35 169.667
35.3 167.667
35.6 158.0
35.9 164.667
36.2 185.667
36.5 167.333
36.8 167.333
37.1 161.333
37.4 155.0
37.7 158.333
38 159.667
38.3 151.0
38.6 177.333
38.9 154.667
39.2 155.667
39.5 162.333
39.8 151.333
40.1 150.333
40.4 152.333
40.7 144.0
41 146.667
41.3 149.333
41.6 149.0
41.9 138.0
42.2 150.333
42.5 143.667
42.8 155.333
43.1 138.667
43.4 156.0
43.7 145.667
44 152.0
44.3 135.667
44.6 148.333
44.9 161.333
45.2 157.0
45.5 159.0
45.8 138.333
46.1 137.667
46.4 169.0
46.7 142.333
47 160.333
47.3 151.333
47.6 139.333
47.9 155.667
48.2 137.667
48.5 138.333
48.8 152.667
49.1 139.667
49.4 145.333
49.7 151.0
50 148.0
50.3 138.667
50.6 150.333
50.9 150.0
51.2 153.0
51.5 138.667
51.8 144.333
52.1 144.667
52.4 153.0
52.7 140.0
53 142.333
53.3 153.667
53.6 146.333
53.9 153.333
54.2 143.0
54.5 141.0
54.8 147.0
55.1 136.667
55.4 158.333
55.7 144.333
56 156.0
56.3 152.0
56.6 147.0
56.9 152.667
57.2 142.333
57.5 166.667
57.8 153.667
58.1 152.333
58.4 154.0
58.7 158.0
59 173.0
59.3 167.0
59.6 154.667
59.9 156.0
60.2 158.0
60.5 165.333
60.8 183.667
61.1 169.667
61.4 170.0
61.7 170.667
62 167.0
62.3 166.667
62.6 166.333
62.9 170.333
63.2 175.0
63.5 164.667
63.8 191.0
64.1 170.667
64.4 181.333
64.7 158.333
65 169.333
65.3 165.667
65.6 181.667
65.9 179.0
66.2 175.333
66.5 187.0
66.8 171.0
67.1 178.0
67.4 174.0
67.7 181.333
68 168.0
68.3 174.0
68.6 183.333
68.9 178.667
69.2 161.0
69.5 189.667
69.8 170.667
70.1 176.667
70.4 171.0
70.7 170.667
71 173.333
71.3 169.667
71.6 164.333
71.9 183.667
72.2 185.0
72.5 180.0
72.8 187.333
73.1 177.667
73.4 186.333
73.7 182.0
74 186.0
74.3 174.667
74.6 185.667
74.9 184.667
75.2 179.0
75.5 171.667
75.8 179.333
76.1 175.667
76.4 178.0
76.7 176.667
77 178.0
77.3 180.333
77.6 186.667
77.9 191.333
78.2 179.667
78.5 177.0
78.8 172.0
79.1 181.0
79.4 169.667
79.7 180.333
80 166.667
80.3 172.333
80.6 176.667
80.9 176.667
81.2 171.333
81.5 172.667
81.8 165.333
82.1 167.0
82.4 154.667
82.7 167.0
83 153.667
83.3 160.667
83.6 159.333
83.9 151.333
84.2 149.333
84.5 143.667
84.8 150.0