File: Rigaku_Lab_XRD/XRD_empty_cal_conv.xy
# scan speed: 3.0
# theta min: 5.0
# theta_max: 85.0
# spacing: 0.05
# two theta, intensity
5.0 28.0
5.3 64.0
5.6 66.0
5.9 68.0
6.2 61.0
6.5 59.0
6.8 60.0
7.1 51.0
7.4 51.0
7.7 55.0
8 60.0
8.3 36.0
8.6 53.0
8.9 47.0
9.2 44.0
9.5 50.0
9.8 48.0
10.1 58.0
10.4 47.0
10.7 48.0
11 59.0
11.3 46.0
11.6 55.0
11.9 48.0
12.2 52.0
12.5 40.0
12.8 64.0
13.1 40.0
13.4 41.0
13.7 41.0
14 49.0
14.3 44.0
14.6 54.0
14.9 54.0
15.2 38.0
15.5 43.0
15.8 35.0
16.1 48.0
16.4 31.0
16.7 50.0
17 38.0
17.3 47.0
17.6 39.0
17.9 25.0
18.2 33.0
18.5 43.0
18.8 39.0
19.1 38.0
19.4 39.0
19.7 35.0
20 35.0
20.3 38.0
20.6 33.0
20.9 33.0
21.2 35.0
21.5 34.0
21.8 42.0
22.1 45.0
22.4 36.0
22.7 34.0
23 38.0
23.3 36.0
23.6 44.0
23.9 40.0
24.2 39.0
24.5 34.0
24.8 41.0
25.1 32.0
25.4 38.0
25.7 38.0
26 46.0
26.3 39.0
26.6 29.0
26.9 32.0
27.2 33.0
27.5 33.0
27.8 32.0
28.1 20.0
28.4 38.0
28.7 38.0
29 36.0
29.3 32.0
29.6 47.0
29.9 41.0
30.2 35.0
30.5 32.0
30.8 26.0
31.1 41.0
31.4 34.0
31.7 44.0
32 31.0
32.3 24.0
32.6 32.0
32.9 34.0
33.2 30.0
33.5 40.0
33.8 22.0
34.1 36.0
34.4 36.0
34.7 30.0
35 44.0
35.3 41.0
35.6 25.0
35.9 36.0
36.2 41.0
36.5 34.0
36.8 25.0
37.1 36.0
37.4 40.0
37.7 35.0
38 44.0
38.3 42.0
38.6 30.0
38.9 34.0
39.2 47.0
39.5 26.0
39.8 35.0
40.1 29.0
40.4 39.0
40.7 50.0
41 44.0
41.3 28.0
41.6 25.0
41.9 51.0
42.2 37.0
42.5 37.0
42.8 29.0
43.1 24.0
43.4 32.0
43.7 41.0
44 50.0
44.3 41.0
44.6 30.0
44.9 30.0
45.2 38.0
45.5 39.0
45.8 44.0
46.1 33.0
46.4 49.0
46.7 43.0
47 40.0
47.3 46.0
47.6 34.0
47.9 32.0
48.2 32.0
48.5 41.0
48.8 46.0
49.1 51.0
49.4 38.0
49.7 49.0
50 56.0
50.3 42.0
50.6 40.0
50.9 34.0
51.2 44.0
51.5 38.0
51.8 46.0
52.1 38.0
52.4 37.0
52.7 42.0
53 46.0
53.3 52.0
53.6 52.0
53.9 55.0
54.2 43.0
54.5 31.0
54.8 50.0
55.1 45.0
55.4 38.0
55.7 32.0
56 62.0
56.3 50.0
56.6 47.0
56.9 51.0
57.2 55.0
57.5 69.0
57.8 58.0
58.1 55.0
58.4 51.0
58.7 59.0
59 54.0
59.3 69.0
59.6 46.0
59.9 60.0
60.2 59.0
60.5 51.0
60.8 55.0
61.1 49.0
61.4 64.0
61.7 60.0
62 80.0
62.3 55.0
62.6 53.0
62.9 62.0
63.2 60.0
63.5 58.0
63.8 67.0
64.1 70.0
64.4 64.0
64.7 61.0
65 57.0
65.3 55.0
65.6 72.0
65.9 50.0
66.2 75.0
66.5 71.0
66.8 80.0
67.1 65.0
67.4 68.0
67.7 55.0
68 80.0
68.3 62.0
68.6 78.0
68.9 83.0
69.2 63.0
69.5 68.0
69.8 83.0
70.1 70.0
70.4 76.0
70.7 65.0
71 69.0
71.3 74.0
71.6 73.0
71.9 62.0
72.2 76.0
72.5 69.0
72.8 70.0
73.1 80.0
73.4 69.0
73.7 76.0
74 81.0
74.3 74.0
74.6 74.0
74.9 69.0
75.2 72.0
75.5 75.0
75.8 56.0
76.1 65.0
76.4 68.0
76.7 72.0
77 92.0
77.3 76.0
77.6 78.0
77.9 71.0
78.2 70.0
78.5 73.0
78.8 62.0
79.1 73.0
79.4 70.0
79.7 67.0
80 78.0
80.3 60.0
80.6 67.0
80.9 77.0
81.2 77.0
81.5 79.0
81.8 65.0
82.1 79.0
82.4 62.0
82.7 61.0
83 51.0
83.3 85.0
83.6 73.0
83.9 84.0
84.2 70.0
84.5 74.0
84.8 73.0